# R(Angstrom) SO(cm^-1)
  2.000000       72.072886
  2.013013       71.883642
  2.026026       71.692453
  2.039039       71.499365
  2.052052       71.304426
  2.065065       71.107683
  2.078078       70.909184
  2.091091       70.708977
  2.104104       70.507113
  2.117117       70.303638
  2.130130       70.098605
  2.143143       69.892060
  2.156156       69.684056
  2.169169       69.474641
  2.182182       69.263866
  2.195195       69.051781
  2.208208       68.838437
  2.221221       68.623883
  2.234234       68.408170
  2.247247       68.191349
  2.260260       67.973468
  2.273273       67.754580
  2.286286       67.534733
  2.299299       67.313978
  2.312312       67.092363
  2.325325       66.869939
  2.338338       66.646755
  2.351351       66.422860
  2.364364       66.198302
  2.377377       65.973130
  2.390390       65.747392
  2.403403       65.521136
  2.416416       65.294409
  2.429429       65.067258
  2.442442       64.839730
  2.455455       64.611872
  2.468468       64.383729
  2.481481       64.155346
  2.494494       63.926769
  2.507508       63.698042
  2.520521       63.469209
  2.533534       63.240314
  2.546547       63.011400
  2.559560       62.782509
  2.572573       62.553684
  2.585586       62.324966
  2.598599       62.096397
  2.611612       61.868016
  2.624625       61.639864
  2.637638       61.411980
  2.650651       61.184403
  2.663664       60.957171
  2.676677       60.730323
  2.689690       60.503895
  2.702703       60.277923
  2.715716       60.052445
  2.728729       59.827495
  2.741742       59.603108
  2.754755       59.379318
  2.767768       59.156160
  2.780781       58.933666
  2.793794       58.711869
  2.806807       58.490800
  2.819820       58.270492
  2.832833       58.050974
  2.845846       57.832278
  2.858859       57.614431
  2.871872       57.397464
  2.884885       57.181406
  2.897898       56.966282
  2.910911       56.752122
  2.923924       56.538951
  2.936937       56.326796
  2.949950       56.115681
  2.962963       55.905633
  2.975976       55.696675
  2.988989       55.488831
  3.002002       55.282124
  3.015015       55.076577
  3.028028       54.872212
  3.041041       54.669050
  3.054054       54.467113
  3.067067       54.266421
  3.080080       54.066993
  3.093093       53.868850
  3.106106       53.672009
  3.119119       53.476490
  3.132132       53.282309
  3.145145       53.089485
  3.158158       52.898034
  3.171171       52.707972
  3.184184       52.519314
  3.197197       52.332077
  3.210210       52.146275
  3.223223       51.961922
  3.236236       51.779031
  3.249249       51.597617
  3.262262       51.417692
  3.275275       51.239268
  3.288288       51.062357
  3.301301       50.886971
  3.314314       50.713120
  3.327327       50.540815
  3.340340       50.370067
  3.353353       50.200885
  3.366366       50.033278
  3.379379       49.867255
  3.392392       49.702824
  3.405405       49.539994
  3.418418       49.378772
  3.431431       49.219165
  3.444444       49.061181
  3.457457       48.904825
  3.470470       48.750103
  3.483483       48.597022
  3.496496       48.445587
  3.509510       48.295802
  3.522523       48.147672
  3.535536       48.001202
  3.548549       47.856396
  3.561562       47.713256
  3.574575       47.571787
  3.587588       47.431990
  3.600601       47.293870
  3.613614       47.157427
  3.626627       47.022665
  3.639640       46.889584
  3.652653       46.758186
  3.665666       46.628472
  3.678679       46.500444
  3.691692       46.374100
  3.704705       46.249442
  3.717718       46.126470
  3.730731       46.005183
  3.743744       45.885581
  3.756757       45.767663
  3.769770       45.651427
  3.782783       45.536873
  3.795796       45.423999
  3.808809       45.312802
  3.821822       45.203282
  3.834835       45.095435
  3.847848       44.989260
  3.860861       44.884753
  3.873874       44.781912
  3.886887       44.680733
  3.899900       44.581214
  3.912913       44.483350
  3.925926       44.387138
  3.938939       44.292573
  3.951952       44.199653
  3.964965       44.108372
  3.977978       44.018726
  3.990991       43.930711
  4.004004       43.844321
  4.017017       43.759552
  4.030030       43.676398
  4.043043       43.594855
  4.056056       43.514916
  4.069069       43.436577
  4.082082       43.359831
  4.095095       43.284672
  4.108108       43.211095
  4.121121       43.139093
  4.134134       43.068661
  4.147147       42.999791
  4.160160       42.932477
  4.173173       42.866712
  4.186186       42.802491
  4.199199       42.739805
  4.212212       42.678648
  4.225225       42.619012
  4.238238       42.560891
  4.251251       42.504278
  4.264264       42.449164
  4.277277       42.395542
  4.290290       42.343405
  4.303303       42.292745
  4.316316       42.243555
  4.329329       42.195826
  4.342342       42.149550
  4.355355       42.104720
  4.368368       42.061327
  4.381381       42.019364
  4.394394       41.978822
  4.407407       41.939692
  4.420420       41.901968
  4.433433       41.865639
  4.446446       41.830698
  4.459459       41.797136
  4.472472       41.764944
  4.485485       41.734115
  4.498498       41.704639
  4.511512       41.676507
  4.524525       41.649712
  4.537538       41.624243
  4.550551       41.600092
  4.563564       41.577251
  4.576577       41.555711
  4.589590       41.535461
  4.602603       41.516495
  4.615616       41.498802
  4.628629       41.482373
  4.641642       41.467200
  4.654655       41.453273
  4.667668       41.440584
  4.680681       41.429123
  4.693694       41.418880
  4.706707       41.409848
  4.719720       41.402016
  4.732733       41.395376
  4.745746       41.389919
  4.758759       41.385634
  4.771772       41.382514
  4.784785       41.380548
  4.797798       41.379728
  4.810811       41.380044
  4.823824       41.381487
  4.836837       41.384048
  4.849850       41.387717
  4.862863       41.392486
  4.875876       41.398346
  4.888889       41.405286
  4.901902       41.413298
  4.914915       41.422372
  4.927928       41.432500
  4.940941       41.443672
  4.953954       41.455879
  4.966967       41.469112
  4.979980       41.483362
  4.992993       41.498619
  5.006006       41.514875
  5.019019       41.532120
  5.032032       41.550345
  5.045045       41.569541
  5.058058       41.589700
  5.071071       41.610811
  5.084084       41.632867
  5.097097       41.655857
  5.110110       41.679774
  5.123123       41.704608
  5.136136       41.730350
  5.149149       41.756992
  5.162162       41.784524
  5.175175       41.812938
  5.188188       41.842224
  5.201201       41.872374
  5.214214       41.903380
  5.227227       41.935232
  5.240240       41.967922
  5.253253       42.001441
  5.266266       42.035781
  5.279279       42.070932
  5.292292       42.106887
  5.305305       42.143637
  5.318318       42.181173
  5.331331       42.219486
  5.344344       42.258569
  5.357357       42.298413
  5.370370       42.339009
  5.383383       42.380350
  5.396396       42.422426
  5.409409       42.465230
  5.422422       42.508754
  5.435435       42.552988
  5.448448       42.597926
  5.461461       42.643558
  5.474474       42.689878
  5.487487       42.736876
  5.500501       42.784545
  5.513514       42.832877
  5.526527       42.881864
  5.539540       42.931498
  5.552553       42.981771
  5.565566       43.032675
  5.578579       43.084204
  5.591592       43.136348
  5.604605       43.189100
  5.617618       43.242453
  5.630631       43.296400
  5.643644       43.350931
  5.656657       43.406041
  5.669670       43.461721
  5.682683       43.517964
  5.695696       43.574763
  5.708709       43.632111
  5.721722       43.689999
  5.734735       43.748422
  5.747748       43.807371
  5.760761       43.866840
  5.773774       43.926821
  5.786787       43.987307
  5.799800       44.048292
  5.812813       44.109768
  5.825826       44.171728
  5.838839       44.234166
  5.851852       44.297074
  5.864865       44.360447
  5.877878       44.424276
  5.890891       44.488556
  5.903904       44.553279
  5.916917       44.618439
  5.929930       44.684030
  5.942943       44.750045
  5.955956       44.816477
  5.968969       44.883320
  5.981982       44.950568
  5.994995       45.018214
  6.008008       45.086252
  6.021021       45.154675
  6.034034       45.223478
  6.047047       45.292654
  6.060060       45.362198
  6.073073       45.432102
  6.086086       45.502361
  6.099099       45.572969
  6.112112       45.643920
  6.125125       45.715208
  6.138138       45.786827
  6.151151       45.858772
  6.164164       45.931036
  6.177177       46.003614
  6.190190       46.076500
  6.203203       46.149688
  6.216216       46.223174
  6.229229       46.296950
  6.242242       46.371013
  6.255255       46.445356
  6.268268       46.519973
  6.281281       46.594860
  6.294294       46.670012
  6.307307       46.745422
  6.320320       46.821085
  6.333333       46.896997
  6.346346       46.973152
  6.359359       47.049545
  6.372372       47.126171
  6.385385       47.203025
  6.398398       47.280102
  6.411411       47.357397
  6.424424       47.434904
  6.437437       47.512620
  6.450450       47.590539
  6.463463       47.668656
  6.476476       47.746967
  6.489489       47.825467
  6.502503       47.904151
  6.515516       47.983015
  6.528529       48.062053
  6.541542       48.141263
  6.554555       48.220638
  6.567568       48.300175
  6.580581       48.379868
  6.593594       48.459715
  6.606607       48.539709
  6.619620       48.619848
  6.632633       48.700126
  6.645646       48.780539
  6.658659       48.861084
  6.671672       48.941756
  6.684685       49.022551
  6.697698       49.103464
  6.710711       49.184492
  6.723724       49.265632
  6.736737       49.346877
  6.749750       49.428226
  6.762763       49.509674
  6.775776       49.591216
  6.788789       49.672850
  6.801802       49.754572
  6.814815       49.836377
  6.827828       49.918262
  6.840841       50.000223
  6.853854       50.082257
  6.866867       50.164360
  6.879880       50.246529
  6.892893       50.328759
  6.905906       50.411048
  6.918919       50.493391
  6.931932       50.575787
  6.944945       50.658230
  6.957958       50.740718
  6.970971       50.823247
  6.983984       50.905815
  6.996997       50.988417
  7.010010       51.071051
  7.023023       51.153713
  7.036036       51.236401
  7.049049       51.319110
  7.062062       51.401839
  7.075075       51.484583
  7.088088       51.567341
  7.101101       51.650108
  7.114114       51.732882
  7.127127       51.815660
  7.140140       51.898439
  7.153153       51.981216
  7.166166       52.063989
  7.179179       52.146754
  7.192192       52.229509
  7.205205       52.312251
  7.218218       52.394977
  7.231231       52.477684
  7.244244       52.560371
  7.257257       52.643033
  7.270270       52.725669
  7.283283       52.808277
  7.296296       52.890853
  7.309309       52.973394
  7.322322       53.055900
  7.335335       53.138366
  7.348348       53.220791
  7.361361       53.303172
  7.374374       53.385507
  7.387387       53.467793
  7.400400       53.550029
  7.413413       53.632211
  7.426426       53.714338
  7.439439       53.796407
  7.452452       53.878416
  7.465465       53.960363
  7.478478       54.042246
  7.491491       54.124063
  7.504505       54.205811
  7.517518       54.287488
  7.530531       54.369093
  7.543544       54.450623
  7.556557       54.532076
  7.569570       54.613451
  7.582583       54.694745
  7.595596       54.775957
  7.608609       54.857084
  7.621622       54.938125
  7.634635       55.019077
  7.647648       55.099939
  7.660661       55.180710
  7.673674       55.261387
  7.686687       55.341968
  7.699700       55.422452
  7.712713       55.502838
  7.725726       55.583122
  7.738739       55.663305
  7.751752       55.743383
  7.764765       55.823356
  7.777778       55.903222
  7.790791       55.982978
  7.803804       56.062625
  7.816817       56.142160
  7.829830       56.221581
  7.842843       56.300887
  7.855856       56.380077
  7.868869       56.459149
  7.881882       56.538102
  7.894895       56.616934
  7.907908       56.695644
  7.920921       56.774230
  7.933934       56.852692
  7.946947       56.931027
  7.959960       57.009235
  7.972973       57.087314
  7.985986       57.165263
  7.998999       57.243081
  8.012012       57.320766
  8.025025       57.398317
  8.038038       57.475733
  8.051051       57.553013
  8.064064       57.630156
  8.077077       57.707160
  8.090090       57.784024
  8.103103       57.860747
  8.116116       57.937329
  8.129129       58.013768
  8.142142       58.090062
  8.155155       58.166212
  8.168168       58.242215
  8.181181       58.318072
  8.194194       58.393780
  8.207207       58.469339
  8.220220       58.544749
  8.233233       58.620007
  8.246246       58.695113
  8.259259       58.770067
  8.272272       58.844866
  8.285285       58.919511
  8.298298       58.994001
  8.311311       59.068335
  8.324324       59.142511
  8.337337       59.216529
  8.350350       59.290389
  8.363363       59.364089
  8.376376       59.437628
  8.389389       59.511007
  8.402402       59.584224
  8.415415       59.657278
  8.428428       59.730169
  8.441441       59.802896
  8.454454       59.875458
  8.467467       59.947855
  8.480480       60.020086
  8.493493       60.092150
  8.506507       60.164047
  8.519520       60.235777
  8.532533       60.307337
  8.545546       60.378729
  8.558559       60.449951
  8.571572       60.521003
  8.584585       60.591883
  8.597598       60.662593
  8.610611       60.733131
  8.623624       60.803496
  8.636637       60.873689
  8.649650       60.943708
  8.662663       61.013553
  8.675676       61.083224
  8.688689       61.152720
  8.701702       61.222041
  8.714715       61.291186
  8.727728       61.360155
  8.740741       61.428948
  8.753754       61.497564
  8.766767       61.566002
  8.779780       61.634263
  8.792793       61.702346
  8.805806       61.770250
  8.818819       61.837976
  8.831832       61.905523
  8.844845       61.972890
  8.857858       62.040078
  8.870871       62.107085
  8.883884       62.173913
  8.896897       62.240559
  8.909910       62.307025
  8.922923       62.373310
  8.935936       62.439413
  8.948949       62.505335
  8.961962       62.571075
  8.974975       62.636633
  8.987988       62.702009
  9.001001       62.767202
  9.014014       62.832212
  9.027027       62.897039
  9.040040       62.961684
  9.053053       63.026145
  9.066066       63.090423
  9.079079       63.154517
  9.092092       63.218427
  9.105105       63.282154
  9.118118       63.345697
  9.131131       63.409055
  9.144144       63.472230
  9.157157       63.535220
  9.170170       63.598025
  9.183183       63.660647
  9.196196       63.723083
  9.209209       63.785335
  9.222222       63.847402
  9.235235       63.909285
  9.248248       63.970982
  9.261261       64.032495
  9.274274       64.093823
  9.287287       64.154966
  9.300300       64.215924
  9.313313       64.276697
  9.326326       64.337285
  9.339339       64.397688
  9.352352       64.457906
  9.365365       64.517939
  9.378378       64.577787
  9.391391       64.637451
  9.404404       64.696929
  9.417417       64.756222
  9.430430       64.815331
  9.443443       64.874255
  9.456456       64.932994
  9.469469       64.991549
  9.482482       65.049919
  9.495495       65.108105
  9.508509       65.166106
  9.521522       65.223923
  9.534535       65.281555
  9.547548       65.339004
  9.560561       65.396269
  9.573574       65.453349
  9.586587       65.510246
  9.599600       65.566959
  9.612613       65.623489
  9.625626       65.679835
  9.638639       65.735998
  9.651652       65.791977
  9.664665       65.847774
  9.677678       65.903388
  9.690691       65.958819
  9.703704       66.014068
  9.716717       66.069134
  9.729730       66.124018
  9.742743       66.178720
  9.755756       66.233241
  9.768769       66.287579
  9.781782       66.341737
  9.794795       66.395712
  9.807808       66.449507
  9.820821       66.503121
  9.833834       66.556554
  9.846847       66.609807
  9.859860       66.662880
  9.872873       66.715772
  9.885886       66.768485
  9.898899       66.821018
  9.911912       66.873372
  9.924925       66.925547
  9.937938       66.977543
  9.950951       67.029360
  9.963964       67.080999
  9.976977       67.132460
  9.989990       67.183743
 10.003003       67.234848
 10.016016       67.285776
 10.029029       67.336527
 10.042042       67.387101
 10.055055       67.437498
 10.068068       67.487719
 10.081081       67.537764
 10.094094       67.587634
 10.107107       67.637328
 10.120120       67.686846
 10.133133       67.736190
 10.146146       67.785360
 10.159159       67.834355
 10.172172       67.883176
 10.185185       67.931823
 10.198198       67.980297
 10.211211       68.028598
 10.224224       68.076726
 10.237237       68.124682
 10.250250       68.172465
 10.263263       68.220077
 10.276276       68.267517
 10.289289       68.314786
 10.302302       68.361884
 10.315315       68.408812
 10.328328       68.455569
 10.341341       68.502157
 10.354354       68.548575
 10.367367       68.594823
 10.380380       68.640903
 10.393393       68.686815
 10.406406       68.732558
 10.419419       68.778133
 10.432432       68.823541
 10.445445       68.868782
 10.458458       68.913856
 10.471471       68.958763
 10.484484       69.003505
 10.497497       69.048081
 10.510511       69.092491
 10.523524       69.136736
 10.536537       69.180817
 10.549550       69.224733
 10.562563       69.268486
 10.575576       69.312075
 10.588589       69.355501
 10.601602       69.398764
 10.614615       69.441864
 10.627628       69.484803
 10.640641       69.527579
 10.653654       69.570195
 10.666667       69.612650
 10.679680       69.654944
 10.692693       69.697077
 10.705706       69.739051
 10.718719       69.780866
 10.731732       69.822522
 10.744745       69.864019
 10.757758       69.905357
 10.770771       69.946538
 10.783784       69.987562
 10.796797       70.028428
 10.809810       70.069138
 10.822823       70.109691
 10.835836       70.150088
 10.848849       70.190330
 10.861862       70.230417
 10.874875       70.270349
 10.887888       70.310127
 10.900901       70.349751
 10.913914       70.389221
 10.926927       70.428539
 10.939940       70.467703
 10.952953       70.506716
 10.965966       70.545576
 10.978979       70.584285
 10.991992       70.622842
 11.005005       70.661250
 11.018018       70.699506
 11.031031       70.737613
 11.044044       70.775571
 11.057057       70.813379
 11.070070       70.851039
 11.083083       70.888550
 11.096096       70.925914
 11.109109       70.963130
 11.122122       71.000199
 11.135135       71.037122
 11.148148       71.073898
 11.161161       71.110528
 11.174174       71.147014
 11.187187       71.183354
 11.200200       71.219550
 11.213213       71.255601
 11.226226       71.291509
 11.239239       71.327274
 11.252252       71.362895
 11.265265       71.398375
 11.278278       71.433712
 11.291291       71.468907
 11.304304       71.503962
 11.317317       71.538875
 11.330330       71.573648
 11.343343       71.608281
 11.356356       71.642775
 11.369369       71.677130
 11.382382       71.711345
 11.395395       71.745423
 11.408408       71.779362
 11.421421       71.813164
 11.434434       71.846829
 11.447447       71.880358
 11.460460       71.913750
 11.473473       71.947006
 11.486486       71.980127
 11.499499       72.013113
 11.512513       72.045965
 11.525526       72.078682
 11.538539       72.111266
 11.551552       72.143716
 11.564565       72.176033
 11.577578       72.208218
 11.590591       72.240271
 11.603604       72.272193
